" File: Jessing Folder\Dark Spectrum.SSM
" SCOPE->  Wave:902.92nm  Pix:1050  Val:1180.704  Time:1000ms  Avg:1  Sm:0  Sg:0  Tc:off  Z  SNAP  Xt:3  Ch:1  Xtrig
 795.00  8.9145E+002
 795.25  6.1284E+002
 795.50  6.3626E+002
 795.75  6.1715E+002
 796.00  8.7719E+002
 796.25  1.0824E+003
 796.50  1.2022E+003
 796.75  1.3712E+003
 797.00  1.2480E+003
 797.25  1.3065E+003
 797.50  7.5697E+002
 797.75  8.2943E+002
 798.00  1.1602E+003
 798.25  1.1412E+003
 798.50  1.1389E+003
 798.75  1.0022E+003
 799.00  6.3700E+002
 799.25  5.8582E+002
 799.50  5.7140E+002
 799.75  6.2416E+002
 800.00  8.8870E+002
 800.25  1.1489E+003
 800.50  1.1293E+003
 800.75  1.2975E+003
 801.00  1.3202E+003
 801.25  1.1865E+003
 801.50  1.1241E+003
 801.75  8.9640E+002
 802.00  7.9521E+002
 802.25  7.0475E+002
 802.50  6.0490E+002
 802.75  7.3641E+002
 803.00  8.7603E+002
 803.25  9.3410E+002
 803.50  1.0853E+003
 803.75  1.1703E+003
 804.00  1.0967E+003
 804.25  1.0191E+003
 804.50  1.0108E+003
 804.75  1.1717E+003
 805.00  1.2191E+003
 805.25  1.2476E+003
 805.50  1.1261E+003
 805.75  9.6375E+002
 806.00  9.4207E+002
 806.25  9.1222E+002
 806.50  8.4959E+002
 806.75  9.5060E+002
 807.00  8.3050E+002
 807.25  8.8267E+002
 807.50  8.7334E+002
 807.75  1.0509E+003
 808.00  1.0554E+003
 808.25  1.1400E+003
 808.50  1.2112E+003
 808.75  1.1761E+003
 809.00  8.7226E+002
 809.25  9.3608E+002
 809.50  9.9478E+002
 809.75  8.0622E+002
 810.00  9.4678E+002
 810.25  9.4906E+002
 810.50  6.5561E+002
 810.75  7.9853E+002
 811.00  7.8906E+002
 811.25  1.0471E+003
 811.50  9.7571E+002
 811.75  1.1052E+003
 812.00  1.2442E+003
 812.25  1.3227E+003
 812.50  1.1403E+003
 812.75  1.0711E+003
 813.00  6.9017E+002
 813.25  5.8181E+002
 813.50  8.7752E+002
 813.75  8.1154E+002
 814.00  8.5864E+002
 814.25  8.0327E+002
 814.50  1.1185E+003
 814.75  1.2950E+003
 815.00  1.4071E+003
 815.25  1.3650E+003
 815.50  1.2753E+003
 815.75  1.2063E+003
 816.00  1.1824E+003
 816.25  1.1217E+003
 816.50  9.5703E+002
 816.75  1.0089E+003
 817.00  9.6746E+002
 817.25  9.6253E+002
 817.50  8.8193E+002
 817.75  8.6865E+002
 818.00  9.3208E+002
 818.25  1.1467E+003
 818.50  1.2572E+003
 818.75  1.3229E+003
 819.00  1.2677E+003
 819.25  1.3648E+003
 819.50  1.0292E+003
 819.75  1.1015E+003
 820.00  1.1748E+003
 820.25  1.1148E+003
 820.50  9.4744E+002
 820.75  8.4016E+002
 821.00  9.2619E+002
 821.25  9.1227E+002
 821.50  9.7867E+002
 821.75  1.1232E+003
 822.00  1.2878E+003
 822.25  1.3252E+003
 822.50  1.0944E+003
 822.75  1.1232E+003
 823.00  1.1130E+003
 823.25  1.1167E+003
 823.50  6.1970E+002
 823.75  8.5673E+002
 824.00  8.5601E+002
 824.25  7.3799E+002
 824.50  8.0301E+002
 824.75  8.2080E+002
 825.00  9.8327E+002
 825.25  1.0007E+003
 825.50  8.8364E+002
 825.75  9.5543E+002
 826.00  1.0569E+003
 826.25  1.1098E+003
 826.50  1.0506E+003
 826.75  1.2019E+003
 827.00  1.1262E+003
 827.25  9.8425E+002
 827.50  7.0598E+002
 827.75  7.2966E+002
 828.00  7.6281E+002
 828.25  9.0075E+002
 828.50  1.1574E+003
 828.75  1.0419E+003
 829.00  9.5230E+002
 829.25  9.0425E+002
 829.50  1.0201E+003
 829.75  1.0744E+003
 830.00  1.2401E+003
 830.25  1.1441E+003
 830.50  9.4214E+002
 830.75  8.4348E+002
 831.00  8.5108E+002
 831.25  1.0545E+003
 831.50  9.8058E+002
 831.75  8.2199E+002
 832.00  1.0758E+003
 832.25  1.2414E+003
 832.50  1.3155E+003
 832.75  1.3549E+003
 833.00  1.3079E+003
 833.25  1.3030E+003
 833.50  1.2027E+003
 833.75  1.2177E+003
 834.00  1.1847E+003
 834.25  9.0570E+002
 834.50  7.5121E+002
 834.75  9.7131E+002
 835.00  9.0818E+002
 835.25  9.7308E+002
 835.50  9.8752E+002
 835.75  8.8729E+002
 836.00  1.1035E+003
 836.25  9.8227E+002
 836.50  1.2706E+003
 836.75  1.3868E+003
 837.00  1.4006E+003
 837.25  1.0800E+003
 837.50  1.2512E+003
 837.75  1.1524E+003
 838.00  8.8453E+002
 838.25  9.5441E+002
 838.50  8.0314E+002
 838.75  1.0927E+003
 839.00  9.8599E+002
 839.25  9.9171E+002
 839.50  1.0679E+003
 839.75  1.0854E+003
 840.00  1.2204E+003
 840.25  1.2048E+003
 840.50  1.1889E+003
 840.75  1.1446E+003
 841.00  1.2521E+003
 841.25  1.2213E+003
 841.50  1.1404E+003
 841.75  8.6707E+002
 842.00  9.3618E+002
 842.25  8.6888E+002
 842.50  8.9594E+002
 842.75  7.7806E+002
 843.00  7.9059E+002
 843.25  7.7966E+002
 843.50  8.9220E+002
 843.75  7.5825E+002
 844.00  7.7890E+002
 844.25  8.9209E+002
 844.50  1.0245E+003
 844.75  1.1119E+003
 845.00  1.2866E+003
 845.25  1.1699E+003
 845.50  1.0430E+003
 845.75  8.0841E+002
 846.00  9.1811E+002
 846.25  1.0971E+003
 846.50  8.7256E+002
 846.75  8.6559E+002
 847.00  1.0787E+003
 847.25  1.0176E+003
 847.50  1.2184E+003
 847.75  1.2389E+003
 848.00  1.1721E+003
 848.25  1.1580E+003
 848.50  1.1662E+003
 848.75  1.0445E+003
 849.00  1.0179E+003
 849.25  9.7784E+002
 849.50  1.3473E+003
 849.75  1.2064E+003
 850.00  1.1401E+003
 850.25  1.0946E+003
 850.50  9.8111E+002
 850.75  8.5874E+002
 851.00  1.0260E+003
 851.25  1.0084E+003
 851.50  9.7817E+002
 851.75  1.1348E+003
 852.00  1.1900E+003
 852.25  1.2464E+003
 852.50  1.1091E+003
 852.75  9.5571E+002
 853.00  1.0688E+003
 853.25  9.5861E+002
 853.50  1.0259E+003
 853.75  1.0796E+003
 854.00  1.1270E+003
 854.25  1.0576E+003
 854.50  1.0170E+003
 854.75  1.1823E+003
 855.00  1.2372E+003
 855.25  1.1646E+003
 855.50  1.1628E+003
 855.75  1.1970E+003
 856.00  1.1382E+003
 856.25  1.0220E+003
 856.50  1.0607E+003
 856.75  9.6687E+002
 857.00  1.0301E+003
 857.25  6.7138E+002
 857.50  5.3410E+002
 857.75  7.2810E+002
 858.00  9.4959E+002
 858.25  1.0925E+003
 858.50  1.2666E+003
 858.75  1.2758E+003
 859.00  1.1491E+003
 859.25  9.9620E+002
 859.50  9.3558E+002
 859.75  1.0356E+003
 860.00  1.1379E+003
 860.25  9.4776E+002
 860.50  8.8764E+002
 860.75  9.1145E+002
 861.00  1.0179E+003
 861.25  9.8136E+002
 861.50  9.0360E+002
 861.75  1.0213E+003
 862.00  8.1044E+002
 862.25  9.1808E+002
 862.50  1.0925E+003
 862.75  1.1267E+003
 863.00  1.1788E+003
 863.25  1.0152E+003
 863.50  9.7563E+002
 863.75  7.8541E+002
 864.00  9.0792E+002
 864.25  1.1338E+003
 864.50  1.0747E+003
 864.75  8.9835E+002
 865.00  9.7450E+002
 865.25  1.0956E+003
 865.50  1.0837E+003
 865.75  1.1107E+003
 866.00  1.2302E+003
 866.25  1.0559E+003
 866.50  1.1853E+003
 866.75  1.2692E+003
 867.00  1.1362E+003
 867.25  1.0150E+003
 867.50  1.0170E+003
 867.75  9.4284E+002
 868.00  7.2190E+002
 868.25  9.7532E+002
 868.50  1.1439E+003
 868.75  1.2075E+003
 869.00  1.0303E+003
 869.25  1.1947E+003
 869.50  1.1695E+003
 869.75  1.1731E+003
 870.00  1.2904E+003
 870.25  1.6490E+003
 870.50  1.5653E+003
 870.75  1.2883E+003
 871.00  1.0594E+003
 871.25  1.0783E+003
 871.50  9.7613E+002
 871.75  9.9243E+002
 872.00  8.5575E+002
 872.25  9.2857E+002
 872.50  1.0287E+003
 872.75  1.1981E+003
 873.00  1.0831E+003
 873.25  1.0264E+003
 873.50  9.9953E+002
 873.75  1.1189E+003
 874.00  1.2442E+003
 874.25  1.2938E+003
 874.50  1.1845E+003
 874.75  9.3256E+002
 875.00  7.8438E+002
 875.25  8.6046E+002
 875.50  9.7705E+002
 875.75  9.2202E+002
 876.00  8.5254E+002
 876.25  8.9299E+002
 876.50  8.4419E+002
 876.75  8.3366E+002
 877.00  9.8505E+002
 877.25  1.0325E+003
 877.50  1.1371E+003
 877.75  1.2464E+003
 878.00  1.2105E+003
 878.25  1.1186E+003
 878.50  9.5871E+002
 878.75  7.2714E+002
 879.00  9.6854E+002
 879.25  9.4523E+002
 879.50  7.9936E+002
 879.75  1.0164E+003
 880.00  1.0803E+003
 880.25  1.0205E+003
 880.50  9.3385E+002
 880.75  1.0364E+003
 881.00  1.2109E+003
 881.25  1.2117E+003
 881.50  9.9846E+002
 881.75  9.4468E+002
 882.00  9.2204E+002
 882.25  9.5316E+002
 882.50  8.4197E+002
 882.75  8.8539E+002
 883.00  1.1071E+003
 883.25  1.0257E+003
 883.50  1.2084E+003
 883.75  1.1366E+003
 884.00  9.5283E+002
 884.25  1.0320E+003
 884.50  1.0351E+003
 884.75  9.0730E+002
 885.00  1.0355E+003
 885.25  9.4126E+002
 885.50  1.1428E+003
 885.75  1.1955E+003
 886.00  1.0717E+003
 886.25  1.2125E+003
 886.50  1.1753E+003
 886.75  1.1314E+003
 887.00  1.1039E+003
 887.25  1.0957E+003
 887.50  1.1692E+003
 887.75  1.2844E+003
 888.00  1.4277E+003
 888.25  1.1157E+003
 888.50  1.0712E+003
 888.75  1.0505E+003
 889.00  9.5404E+002
 889.25  8.6383E+002
 889.50  8.2165E+002
 889.75  8.5958E+002
 890.00  9.0569E+002
 890.25  9.0577E+002
 890.50  9.4797E+002
 890.75  8.1861E+002
 891.00  1.0527E+003
 891.25  1.0579E+003
 891.50  1.0202E+003
 891.75  8.8874E+002
 892.00  9.2166E+002
 892.25  9.9659E+002
 892.50  1.0846E+003
 892.75  1.0386E+003
 893.00  9.6227E+002
 893.25  8.9059E+002
 893.50  9.6407E+002
 893.75  9.5098E+002
 894.00  8.6883E+002
 894.25  8.2313E+002
 894.50  8.5181E+002
 894.75  9.1160E+002
 895.00  1.0360E+003
 895.25  1.3353E+003
 895.50  1.4272E+003
 895.75  1.2210E+003
 896.00  1.1999E+003
 896.25  1.1481E+003
 896.50  1.1927E+003
 896.75  1.1648E+003
 897.00  9.6305E+002
 897.25  8.8185E+002
 897.50  1.0574E+003
 897.75  1.0871E+003
 898.00  7.8692E+002
 898.25  8.7796E+002
 898.50  9.6825E+002
 898.75  9.2338E+002
 899.00  1.0310E+003
 899.25  1.0103E+003
 899.50  1.1085E+003
 899.75  1.0923E+003
 900.00  1.1194E+003
 900.25  1.2318E+003
 900.50  1.1806E+003
 900.75  1.0683E+003
 901.00  1.1972E+003
 901.25  1.0204E+003
 901.50  9.3463E+002
 901.75  9.8676E+002
 902.00  8.7370E+002
 902.25  1.0351E+003
 902.50  1.2850E+003
 902.75  1.2371E+003
 903.00  1.2886E+003
 903.25  1.3644E+003
 903.50  1.2976E+003
 903.75  9.8379E+002
 904.00  9.7832E+002
 904.25  8.3834E+002
 904.50  9.3560E+002
 904.75  1.0202E+003
 905.00  1.0445E+003
 905.25  1.1191E+003
 905.50  9.3437E+002
 905.75  1.1626E+003
 906.00  9.6261E+002
 906.25  9.6788E+002
 906.50  1.0907E+003
 906.75  9.6732E+002
 907.00  1.0422E+003
 907.25  1.0389E+003
 907.50  9.4631E+002
 907.75  9.7474E+002
 908.00  8.9404E+002
 908.25  9.1871E+002
 908.50  7.5966E+002
 908.75  7.0072E+002
 909.00  6.7328E+002
 909.25  8.2617E+002
 909.50  9.1324E+002
 909.75  1.0395E+003
 910.00  1.0721E+003
 910.25  1.2096E+003
 910.50  1.1238E+003
 910.75  1.2570E+003
 911.00  9.9149E+002
 911.25  9.9436E+002
 911.50  1.0129E+003
 911.75  1.0521E+003
 912.00  1.1618E+003
 912.25  9.5354E+002
 912.50  1.0738E+003
 912.75  1.1026E+003
 913.00  9.1453E+002
 913.25  9.0816E+002
 913.50  1.0663E+003
 913.75  1.1272E+003
 914.00  1.2189E+003
 914.25  1.0434E+003
 914.50  1.1239E+003
 914.75  1.1470E+003
 915.00  8.6970E+002
 915.25  9.2396E+002
 915.50  8.1406E+002
 915.75  9.7346E+002
 916.00  9.7503E+002
 916.25  9.8675E+002
 916.50  7.6087E+002
 916.75  9.1577E+002
 917.00  1.0129E+003
 917.25  1.0188E+003
 917.50  7.3835E+002
 917.75  7.8631E+002
 918.00  9.9121E+002
 918.25  9.8123E+002
 918.50  1.0687E+003
 918.75  9.7533E+002
 919.00  9.3394E+002
 919.25  8.0962E+002
 919.50  7.5270E+002
 919.75  7.2447E+002
 920.00  9.5304E+002
 920.25  1.0350E+003
 920.50  1.0671E+003
 920.75  1.0684E+003
 921.00  1.0339E+003
 921.25  8.2737E+002
 921.50  9.3971E+002
 921.75  1.0355E+003
 922.00  1.1275E+003
 922.25  1.2568E+003
 922.50  1.1644E+003
 922.75  1.0572E+003
 923.00  1.0414E+003
 923.25  1.0305E+003
 923.50  1.1271E+003
 923.75  9.6213E+002
 924.00  8.9985E+002
 924.25  1.0101E+003
 924.50  1.1145E+003
 924.75  1.2248E+003
 925.00  1.2527E+003
 925.25  1.0363E+003
 925.50  1.2686E+003
 925.75  1.1386E+003
 926.00  1.0089E+003
 926.25  1.0364E+003
 926.50  1.1408E+003
 926.75  1.0211E+003
 927.00  8.3094E+002
 927.25  9.9867E+002
 927.50  8.8091E+002
 927.75  7.6183E+002
 928.00  9.5503E+002
 928.25  1.1379E+003
 928.50  1.3344E+003
 928.75  1.2818E+003
 929.00  1.2144E+003
 929.25  1.0123E+003
 929.50  1.2403E+003
 929.75  1.2930E+003
 930.00  1.1159E+003
 930.25  1.2566E+003
 930.50  7.9774E+002
 930.75  8.2493E+002
 931.00  8.4490E+002
 931.25  1.0581E+003
 931.50  9.3118E+002
 931.75  9.4214E+002
 932.00  1.2735E+003
 932.25  1.2190E+003
 932.50  8.9799E+002
 932.75  8.3548E+002
 933.00  7.5973E+002
 933.25  1.0357E+003
 933.50  1.0530E+003
 933.75  1.0941E+003
 934.00  1.2163E+003
 934.25  1.4268E+003
 934.50  1.2534E+003
 934.75  1.1118E+003
 935.00  8.4391E+002
 935.25  9.2860E+002
 935.50  1.1397E+003
 935.75  1.1316E+003
 936.00  1.0618E+003
 936.25  1.1474E+003
 936.50  1.1535E+003
 936.75  1.1162E+003
 937.00  1.1532E+003
 937.25  1.0247E+003
 937.50  9.0393E+002
 937.75  9.9643E+002
 938.00  1.1070E+003
 938.25  1.1301E+003
 938.50  9.4704E+002
 938.75  8.6367E+002
 939.00  9.4517E+002
 939.25  1.0656E+003
 939.50  1.1148E+003
 939.75  1.2255E+003
 940.00  1.2370E+003
 940.25  1.0969E+003
 940.50  9.8890E+002
 940.75  9.6382E+002
 941.00  1.2128E+003
 941.25  9.7018E+002
 941.50  1.0460E+003
 941.75  1.0991E+003
 942.00  1.2271E+003
 942.25  8.5523E+002
 942.50  6.7962E+002
 942.75  7.1079E+002
 943.00  8.6115E+002
 943.25  1.1236E+003
 943.50  1.0321E+003
 943.75  9.3297E+002
 944.00  1.1183E+003
 944.25  1.2152E+003
 944.50  1.0413E+003
 944.75  9.5665E+002
 945.00  9.8434E+002
 945.25  7.4446E+002
 945.50  6.3140E+002
 945.75  6.6007E+002
 946.00  1.0013E+003
 946.25  9.5720E+002
 946.50  9.0886E+002
 946.75  7.8703E+002
 947.00  1.0222E+003
 947.25  1.1807E+003
 947.50  1.0187E+003
 947.75  1.1481E+003
 948.00  1.0789E+003
 948.25  1.0107E+003
 948.50  1.0804E+003
 948.75  1.1114E+003
 949.00  1.1253E+003
 949.25  1.0129E+003
 949.50  1.0766E+003
 949.75  1.2705E+003
 950.00  1.0095E+003
 950.25  8.4272E+002
 950.50  8.7083E+002
 950.75  1.0090E+003
 951.00  1.0905E+003
 951.25  1.2555E+003
 951.50  1.2121E+003
 951.75  9.1993E+002
 952.00  1.1096E+003
 952.25  1.0877E+003
 952.50  9.8680E+002
 952.75  1.0438E+003
 953.00  9.7995E+002
 953.25  8.9953E+002
 953.50  1.0939E+003
 953.75  1.3814E+003
 954.00  1.2679E+003
 954.25  1.2264E+003
 954.50  1.0887E+003
 954.75  1.2262E+003
 955.00  1.3224E+003
 955.25  1.2783E+003
 955.50  1.0706E+003
 955.75  8.7298E+002
 956.00  1.0456E+003
 956.25  9.7529E+002
 956.50  8.6508E+002
 956.75  8.8192E+002
 957.00  1.0027E+003
 957.25  9.0630E+002
 957.50  8.7097E+002
 957.75  1.1092E+003
 958.00  1.2877E+003
 958.25  1.1674E+003
 958.50  1.1506E+003
 958.75  1.1974E+003
 959.00  1.3316E+003
 959.25  1.1337E+003
 959.50  1.1298E+003
 959.75  9.8938E+002
 960.00  1.0405E+003
 960.25  1.0021E+003
 960.50  1.0499E+003
 960.75  1.1870E+003
 961.00  1.2148E+003
 961.25  1.1156E+003
 961.50  9.7739E+002
 961.75  1.1313E+003
 962.00  1.0517E+003
 962.25  1.0564E+003
 962.50  8.3461E+002
 962.75  8.5138E+002
 963.00  9.4884E+002
 963.25  1.0169E+003
 963.50  9.6035E+002
 963.75  1.1880E+003
 964.00  1.1630E+003
 964.25  1.1451E+003
 964.50  1.0703E+003
 964.75  8.7706E+002
 965.00  8.0304E+002
 965.25  8.9519E+002
 965.50  9.6510E+002
 965.75  1.1329E+003
 966.00  1.2133E+003
 966.25  1.1448E+003
 966.50  1.1093E+003
 966.75  1.1705E+003
 967.00  1.0553E+003
 967.25  1.0120E+003
 967.50  1.1395E+003
 967.75  1.1670E+003
 968.00  1.1970E+003
 968.25  9.5279E+002
 968.50  1.0165E+003
 968.75  1.1569E+003
 969.00  1.2632E+003
 969.25  1.1965E+003
 969.50  1.0233E+003
 969.75  1.0540E+003
 970.00  8.0436E+002
 970.25  1.1046E+003
 970.50  1.0481E+003
 970.75  9.4667E+002
 971.00  9.8417E+002
 971.25  1.2778E+003
 971.50  1.0891E+003
 971.75  9.2160E+002
 972.00  9.3547E+002
 972.25  1.0857E+003
 972.50  1.1196E+003
 972.75  1.0191E+003
 973.00  8.8079E+002
 973.25  7.4530E+002
 973.50  9.0358E+002
 973.75  1.0652E+003
 974.00  1.1208E+003
 974.25  9.4505E+002
 974.50  7.8016E+002
 974.75  9.2445E+002
 975.00  1.0534E+003
 975.25  1.1341E+003
 975.50  1.1264E+003
 975.75  9.5865E+002
 976.00  9.3326E+002
 976.25  1.0163E+003
 976.50  1.0957E+003
 976.75  1.1695E+003
 977.00  1.0531E+003
 977.25  1.0980E+003
 977.50  8.7045E+002
 977.75  9.0997E+002
 978.00  9.3589E+002
 978.25  9.0474E+002
 978.50  8.8545E+002
 978.75  9.7126E+002
 979.00  8.9402E+002
 979.25  9.7907E+002
 979.50  9.9627E+002
 979.75  1.0929E+003
 980.00  1.0734E+003
 980.25  1.0769E+003
 980.50  8.8072E+002
 980.75  9.0016E+002
 981.00  8.9347E+002
 981.25  7.7681E+002
 981.50  1.1105E+003
 981.75  1.2072E+003
 982.00  9.6309E+002
 982.25  1.1702E+003
 982.50  1.1905E+003
 982.75  1.1394E+003
 983.00  1.1219E+003
 983.25  1.1867E+003
 983.50  1.0201E+003
 983.75  1.0681E+003
 984.00  9.6749E+002
 984.25  8.0557E+002
 984.50  9.0621E+002
 984.75  1.0896E+003
 985.00  1.2706E+003
 985.25  9.0100E+002
 985.50  9.6708E+002
 985.75  1.0979E+003
 986.00  1.1608E+003
 986.25  1.2978E+003
 986.50  1.1903E+003
 986.75  1.1495E+003
 987.00  1.2641E+003
 987.25  1.1203E+003
 987.50  1.1564E+003
 987.75  1.1655E+003
 988.00  1.1567E+003
 988.25  1.1098E+003
 988.50  1.0758E+003
 988.75  1.0783E+003
 989.00  1.0571E+003
 989.25  1.3722E+003
 989.50  1.1015E+003
 989.75  9.6127E+002
 990.00  9.8088E+002
 990.25  9.7501E+002
 990.50  8.9831E+002
 990.75  7.3581E+002
 991.00  7.9873E+002
 991.25  1.0299E+003
 991.50  1.1372E+003
 991.75  1.0073E+003
 992.00  9.7929E+002
 992.25  8.0693E+002
 992.50  8.5935E+002
 992.75  8.8913E+002
 993.00  1.0829E+003
 993.25  1.0847E+003
 993.50  1.0530E+003
 993.75  9.5870E+002
 994.00  1.2148E+003
 994.25  1.0690E+003
 994.50  1.0108E+003
 994.75  1.0415E+003
 995.00  9.7396E+002
 995.25  1.0646E+003
 995.50  1.0796E+003
 995.75  1.1177E+003
 996.00  1.0884E+003
 996.25  1.2089E+003
 996.50  1.1771E+003
 996.75  1.3367E+003
 997.00  1.2681E+003
 997.25  1.1262E+003
 997.50  1.2252E+003
 997.75  1.3091E+003
 998.00  1.2987E+003
 998.25  1.0647E+003
 998.50  1.0176E+003
 998.75  1.0509E+003
 999.00  1.0202E+003
 999.25  1.0142E+003
 999.50  9.6954E+002
 999.75  9.8860E+002
1000.00  1.0943E+003
1000.25  1.1181E+003
1000.50  1.3696E+003
1000.75  1.1849E+003
1001.00  9.5409E+002
1001.25  8.7568E+002
1001.50  9.8465E+002
1001.75  8.8710E+002
1002.00  1.0348E+003
1002.25  8.4171E+002
1002.50  7.9040E+002
1002.75  1.0041E+003
1003.00  9.2852E+002
1003.25  8.4654E+002
1003.50  7.2341E+002
1003.75  1.0482E+003
1004.00  1.0041E+003
1004.25  1.0087E+003
1004.50  1.1883E+003
1004.75  1.2161E+003
1005.00  1.1008E+003
1005.25  1.0670E+003
1005.50  9.9350E+002
1005.75  9.6215E+002
1006.00  8.1464E+002
1006.25  8.8073E+002
1006.50  1.0772E+003
1006.75  1.2326E+003
1007.00  1.1744E+003
1007.25  1.2595E+003
1007.50  1.3607E+003
1007.75  1.1206E+003
